	135		
Frequency (Hz)	Level (dB)

11.139739	-69.68
11.301211	-69.57
11.465025	-69.44
11.631213	-69.28
11.799810	-69.07
11.970850	-68.85
12.144370	-68.60
12.320405	-68.34
12.498992	-68.06
12.680168	-67.77
12.863969	-67.47
13.050435	-67.13
13.239604	-66.82
13.431515	-66.50
13.626208	-66.18
13.823722	-65.82
14.024100	-65.51
14.227382	-65.20
14.433611	-64.85
14.642829	-64.55
14.855080	-64.25
15.070408	-63.93
15.288856	-63.66
15.510471	-63.38
15.735299	-63.13
15.963385	-62.89
16.194778	-62.67
16.429525	-62.48
16.667674	-62.32
16.909275	-62.19
17.154379	-62.10
17.403035	-62.05
17.655296	-62.04
17.911213	-62.07
18.170840	-62.17
18.434230	-62.30
18.701438	-62.48
18.972519	-62.73
19.247530	-63.05
19.526527	-63.40
19.809568	-63.81
20.096712	-64.26
20.388018	-64.75
20.683546	-65.28
20.983358	-65.81
21.287517	-66.35
21.596084	-66.85
21.909123	-67.32
22.226701	-67.73
22.548881	-68.08
22.875732	-68.37
23.207320	-68.61
23.543715	-68.81
23.884986	-68.98
24.231204	-69.13
24.582441	-69.27
24.938768	-69.39
25.300261	-69.53
25.666993	-69.65
26.039042	-69.79
26.416483	-69.95
26.799396	-70.13
27.187858	-70.34
27.581952	-70.57
27.981758	-70.84
28.387360	-71.10
28.798840	-71.36
29.216286	-71.59
29.639782	-71.77
30.069416	-71.88
30.505279	-71.94
30.947459	-71.94
31.396049	-71.92
31.851141	-71.90
32.312830	-71.90
32.781212	-71.91
33.256382	-71.94
33.738440	-71.92
34.227486	-71.82
34.723620	-71.58
35.226947	-71.16
35.737568	-70.58
36.255592	-69.88
36.781124	-69.10
37.314274	-68.29
37.855152	-67.49
38.403871	-66.72
38.960543	-65.97
39.525284	-65.28
40.098211	-64.62
40.679443	-64.02
41.269100	-63.46
41.867304	-62.95
42.474180	-62.46
43.089852	-61.98
43.714448	-61.51
44.348098	-61.04
44.990933	-60.58
45.643086	-60.12
46.304692	-59.69
46.975888	-59.29
47.656813	-58.91
48.347609	-58.53
49.048418	-58.14
49.759385	-57.71
50.480657	-57.25
51.212385	-56.78
51.954719	-56.32
52.707813	-55.89
53.471824	-55.51
54.246909	-55.17
55.033230	-54.85
55.830948	-54.52
56.640229	-54.18
57.461241	-53.80
58.294153	-53.36
59.139139	-52.85
59.996373	-52.29
60.866033	-51.70
61.748299	-51.12
62.643354	-50.55
63.551382	-50.05
64.472573	-49.62
65.407116	-49.28
66.355206	-49.01
67.317038	-48.75
68.292813	-48.50
69.282731	-48.27
70.286999	-48.12
71.305824	-48.10
72.339416	-48.24
73.387991	-48.60
74.451765	-49.24
75.530959	-50.15
76.625796	-51.23
77.736503	-52.34
78.863310	-53.41
80.006450	-54.36
81.166160	-55.09
82.342680	-55.51
83.536255	-55.62
84.747130	-55.58
85.975557	-55.52
87.221791	-55.25
88.486089	-54.47
89.768713	-53.28
91.069929	-52.05
92.390007	-51.02
93.729219	-50.33
95.087844	-49.97
96.466162	-49.63
97.864459	-49.01
99.283025	-48.16
100.722153	-47.32
102.182141	-46.71
103.663293	-46.45
105.165914	-46.28
106.690316	-45.82
108.236814	-45.17
109.805729	-44.62
111.397386	-44.20
113.012114	-43.87
114.650248	-43.64
116.312128	-43.60
117.998096	-43.94
119.708503	-44.59
121.443703	-44.94
123.204054	-44.90
124.989923	-44.75
126.801678	-44.22
128.639694	-43.47
130.504354	-43.05
132.396041	-42.93
134.315150	-42.92
136.262076	-42.97
138.237223	-43.08
140.241000	-43.26
142.273823	-43.49
144.336111	-43.94
146.428293	-44.80
148.550802	-45.94
150.704076	-46.65
152.888563	-46.81
155.104715	-46.96
157.352990	-46.83
159.633854	-46.23
161.947780	-45.75
164.295247	-45.96
166.676741	-46.60
169.092755	-46.22
171.543790	-45.55
174.030353	-45.95
176.552959	-47.34
179.112131	-48.30
181.708398	-48.61
184.342299	-49.29
187.014379	-49.67
189.725192	-49.39
192.475298	-48.83
195.265267	-47.60
198.095678	-46.93
200.967116	-47.34
203.880176	-48.05
206.835462	-49.32
209.833585	-50.96
212.875166	-51.61
215.960836	-51.28
219.091233	-52.29
222.267006	-53.24
225.488813	-51.75
228.757320	-51.54
232.073205	-54.22
235.437154	-56.01
238.849865	-54.58
242.312043	-52.59
245.824407	-50.90
249.387683	-50.59
253.002609	-51.80
256.669935	-54.25
260.390419	-56.27
264.164832	-57.16
267.993956	-55.99
271.878584	-54.98
275.819521	-55.19
279.817582	-57.65
283.873596	-59.85
287.988403	-57.09
292.162855	-54.28
296.397817	-53.05
300.694165	-53.02
305.052789	-52.74
309.474593	-51.77
313.960491	-51.33
318.511414	-50.46
323.128303	-51.19
327.812115	-52.48
332.563820	-54.25
337.384402	-57.78
342.274859	-61.35
347.236204	-62.70
352.269465	-62.22
357.375684	-60.71
362.555919	-57.41
367.811243	-54.72
373.142743	-53.12
378.551525	-52.36
384.038708	-52.50
389.605429	-52.34
395.252841	-54.36
400.982113	-56.03
406.794432	-54.19
412.691002	-50.75
418.673044	-50.11
424.741797	-51.92
430.898518	-50.42
437.144481	-51.69
443.480981	-52.17
449.909331	-51.68
456.430860	-50.99
463.046920	-51.52
469.758882	-52.75
476.568134	-54.39
483.476089	-57.82
490.484175	-66.22
497.593845	-65.34
504.806572	-61.03
512.123848	-56.35
519.547190	-54.13
527.078134	-54.49
534.718242	-57.40
542.469094	-61.94
550.332296	-61.24
558.309477	-59.43
566.402289	-57.96
574.612408	-55.38
582.941535	-54.22
591.391394	-52.62
599.963735	-50.90
608.660334	-50.47
617.482992	-48.91
626.433537	-50.39
635.513821	-51.13
644.725726	-52.03
654.071160	-52.56
663.552057	-54.00
673.170382	-55.26
682.928127	-55.51
692.827312	-53.16
702.869989	-52.28
713.058235	-54.97
723.394163	-59.58
733.879912	-59.81
744.517654	-54.39
755.309592	-51.15
766.257962	-51.12
777.365030	-53.77
788.633098	-55.10
800.064499	-59.57
811.661600	-62.18
823.426804	-53.75
835.362547	-53.44
847.471301	-54.97
859.755574	-52.31
872.217910	-52.40
884.860890	-52.70
897.687132	-51.63
910.699294	-51.37
923.900070	-53.86
937.292194	-55.90
950.878439	-54.89
964.661620	-60.34
978.644591	-63.91
992.830248	-56.32
1007.221529	-55.16
1021.821414	-54.24
1036.632928	-56.82
1051.659138	-57.38
1066.903156	-64.49
1082.368140	-58.81
1098.057291	-58.51
1113.973860	-58.71
1130.121143	-61.84
1146.502484	-63.75
1163.121276	-60.20
1179.980961	-59.77
1197.085030	-55.10
1214.437027	-52.53
1232.040544	-55.06
1249.899229	-57.94
1268.016778	-65.64
1286.396945	-65.72
1305.043536	-57.28
1323.960414	-54.56
1343.151496	-54.05
1362.620756	-54.70
1382.372227	-56.44
1402.410000	-60.18
1422.738225	-69.42
1443.361112	-66.57
1464.282931	-64.11
1485.508017	-67.21
1507.040765	-71.44
1528.885634	-69.48
1551.047150	-68.25
1573.529901	-69.98
1596.338544	-65.51
1619.477804	-57.85
1642.952471	-59.14
1666.767409	-63.86
1690.927550	-73.77
1715.437896	-70.13
1740.303526	-73.47
1765.529587	-71.45
1791.121306	-63.18
1817.083982	-59.82
1843.422992	-65.13
1870.143792	-73.78
1897.251916	-63.52
1924.752977	-59.80
1952.652672	-62.06
1980.956779	-65.36
2009.671159	-69.18
2038.801761	-65.75
2068.354617	-65.36
2098.335847	-70.57
2128.751662	-65.23
2159.608360	-67.46
2190.912333	-69.22
2222.670063	-69.72
2254.888128	-69.41
2287.573200	-71.10
2320.732050	-74.51
2354.371544	-74.64
2388.498649	-78.08
2423.120434	-77.91
2458.244069	-72.37
2493.876828	-70.10
2530.026092	-70.49
2566.699346	-71.70
2603.904187	-76.58
2641.648320	-73.08
2679.939562	-70.16
2718.785844	-70.58
2758.195211	-76.81
2798.175824	-70.17
2838.735965	-69.68
2879.884033	-80.24
2921.628551	-76.61
2963.978165	-76.77
3006.941645	-72.10
3050.527890	-65.58
3094.745927	-71.04
3139.604913	-72.77
3185.114139	-71.95
3231.283032	-74.97
3278.121151	-73.58
3325.638200	-76.82
3373.844017	-74.48
3422.748588	-75.30
3472.362041	-75.16
3522.694651	-77.39
3573.756843	-76.11
3625.559192	-75.66
3678.112427	-74.74
3731.427432	-79.03
3785.515249	-76.39
3840.387080	-77.20
3896.054290	-80.63
3952.528408	-76.63
4009.821129	-83.97
4067.944321	-83.76
4126.910020	-79.53
4186.730440	-75.15
4247.417969	-79.07
4308.985176	-80.78
4371.444813	-77.08
4434.809815	-75.73
4499.093306	-75.82
4564.308599	-73.61
4630.469202	-78.09
4697.588817	-75.78
4765.681344	-77.03
4834.760887	-76.74
4904.841752	-76.88
4975.938453	-75.86
5048.065717	-80.78
5121.238480	-78.80
5195.471897	-79.68
5270.781343	-82.19
5347.182415	-75.58
5424.690937	-77.02
5503.322961	-75.94
5583.094772	-82.50
5664.022893	-76.57
5746.124083	-83.50
5829.415347	-77.58
5913.913936	-82.21
5999.637349	-82.78
6086.603340	-78.63
6174.829922	-81.87
6264.335367	-79.56
6355.138211	-81.08
6447.257262	-79.52
6540.711597	-81.79
6635.520573	-79.94
6731.703824	-83.39
6829.281272	-86.37
6928.273125	-84.57
7028.699885	-78.98
7130.582353	-82.42
7233.941627	-84.26
7338.799116	-83.83
7445.176537	-85.37
7553.095920	-84.86
7662.579617	-87.46
7773.650302	-85.57
7886.330981	-84.70
8000.644989	-85.32
8116.616003	-89.61
8234.268041	-88.72
8353.625470	-86.81
8474.713009	-88.16
8597.555737	-85.89
8722.179097	-85.47
8848.608897	-84.80
8976.871324	-82.65
9106.992942	-84.03
9239.000700	-87.47
9372.921937	-88.24
9508.784391	-91.55
9646.616199	-88.78
9786.445908	-87.33
9928.302478	-89.44
10072.215288	-88.94
10218.214144	-81.22
10366.329284	-91.36
10516.591384	-94.70
10669.031565	-94.87
10823.681397	-92.91
10980.572911	-95.90
11139.738600	-93.30
11301.211429	-94.98
11465.024840	-98.50
11631.212760	-98.17
11799.809609	-96.16
11970.850305	-89.96
12144.370271	-89.67
12320.405445	-97.10
12498.992285	-97.92
12680.167779	-99.31
12863.969449	-99.61
13050.435363	-96.69
13239.604139	-98.12
13431.514956	-100.06
13626.207560	-101.28
13823.722274	-101.49
14024.100004	-102.99
14227.382252	-102.47
14433.611118	-101.62
14642.829314	-102.69
14855.080172	-101.50
15070.407650	-103.12
15288.856344	-102.52
15510.471498	-102.63
15735.299010	-100.73
15963.385443	-102.88
16194.778036	-103.60
16429.524714	-102.81
16667.674093	-102.62
16909.275497	-98.49
17154.378963	-99.69
17403.035256	-102.22
17655.295873	-103.79
17911.213060	-103.32
18170.839820	-104.68
18434.229924	-106.09
18701.437922	-104.84
18972.519156	-105.33
19247.529769	-104.58
19526.526718	-105.10
19809.567786	-105.64
20096.711592	-102.97
20388.017608	-101.97
20683.546166	-103.54
20983.358471	-105.01
21287.516618	-105.39
21596.083601	-105.49
21909.123326	-105.69
22226.700627	-105.53