	att 10k		
Frequency (Hz)	Magnitude (dB)	Phase (degrees)	Coherence
1.464844	-26.68	-145.19	0.99
2.929688	-26.28	-146.78	0.99
4.394531	-25.45	-159.47	1.00
5.859375	-24.99	-165.66	1.00
7.324219	-24.95	-168.26	1.00
8.789062	-24.86	-170.43	1.00
10.253906	-24.88	-171.81	1.00
11.718750	-24.81	-173.15	1.00
13.183594	-24.85	-173.59	1.00
14.648438	-24.81	-174.20	1.00
16.113281	-24.91	-175.01	1.00
17.578125	-24.73	-175.87	1.00
19.042969	-24.73	-176.19	1.00
20.507812	-24.74	-176.41	1.00
21.972656	-24.78	-176.58	1.00
23.437500	-24.79	-176.97	1.00
24.902344	-24.83	-177.11	1.00
26.367188	-24.84	-177.49	1.00
27.832031	-24.81	-177.77	1.00
29.296875	-24.72	-178.11	1.00
30.761719	-24.71	-178.53	1.00
32.226562	-24.65	-178.85	1.00
33.691406	-24.72	-178.46	1.00
35.156250	-24.70	-179.10	1.00
36.621094	-24.70	-178.64	1.00
38.085938	-24.73	-179.46	1.00
39.550781	-24.76	-179.32	1.00
41.015625	-24.69	-179.51	1.00
42.480469	-24.73	-180.00	1.00
43.945312	-24.73	-179.65	1.00
45.410156	-24.71	179.94	1.00
46.875000	-24.73	179.84	1.00
48.339844	-24.74	179.84	1.00
49.804688	-24.73	179.84	1.00
51.269531	-24.73	179.63	1.00
52.734375	-24.73	179.69	1.00
54.199219	-24.73	179.41	1.00
55.664062	-24.72	179.32	1.00
57.128906	-24.75	179.22	1.00
58.593750	-24.73	179.04	1.00
60.058594	-24.74	178.85	1.00
61.523438	-24.73	178.78	1.00
62.988281	-24.74	178.71	1.00
64.453125	-24.72	178.66	1.00
65.917969	-24.70	178.51	1.00
67.382812	-24.73	178.62	1.00
68.847656	-24.71	178.50	1.00
70.312500	-24.76	178.68	1.00
71.777344	-24.72	178.06	1.00
73.242188	-24.72	178.28	1.00
74.707031	-24.74	177.84	1.00
76.171875	-24.72	177.79	1.00
77.636719	-24.70	177.91	1.00
79.101562	-24.74	177.62	1.00
80.566406	-24.73	177.53	1.00
82.031250	-24.75	177.52	1.00
83.496094	-24.73	177.49	1.00
84.960938	-24.76	177.43	1.00
86.425781	-24.78	177.28	1.00
87.890625	-24.74	177.08	1.00
89.355469	-24.74	177.00	1.00
90.820312	-24.74	176.92	1.00
92.285156	-24.78	176.97	1.00
93.750000	-24.75	176.84	1.00
95.214844	-24.74	176.55	1.00
96.679688	-24.74	176.72	1.00
98.144531	-24.74	176.74	1.00
99.609375	-24.76	176.91	1.00
101.074219	-24.78	176.45	1.00
102.539062	-24.76	176.28	1.00
104.003906	-24.75	176.29	1.00
105.468750	-24.73	176.26	1.00
106.933594	-24.75	176.02	1.00
108.398438	-24.76	176.01	1.00
109.863281	-24.75	175.97	1.00
111.328125	-24.75	175.89	1.00
112.792969	-24.78	175.93	1.00
114.257812	-24.74	175.95	1.00
115.722656	-24.73	175.61	1.00
117.187500	-24.77	175.77	1.00
118.652344	-24.78	175.51	1.00
120.117188	-24.77	175.44	1.00
121.582031	-24.76	175.41	1.00
123.046875	-24.79	175.33	1.00
124.511719	-24.77	175.29	1.00
125.976562	-24.76	175.25	1.00
127.441406	-24.75	175.21	1.00
128.906250	-24.75	174.77	1.00
130.371094	-24.79	175.00	1.00
131.835938	-24.79	174.88	1.00
133.300781	-24.78	174.77	1.00
134.765625	-24.77	174.71	1.00
136.230469	-24.76	174.67	1.00
137.695312	-24.79	174.66	1.00
139.160156	-24.78	174.63	1.00
140.625000	-24.78	174.61	1.00
143.554688	-24.80	174.68	1.00
146.484375	-24.77	174.24	1.00
149.414062	-24.79	174.25	1.00
152.343750	-24.77	174.09	1.00
155.273438	-24.79	173.85	1.00
158.203125	-24.79	173.71	1.00
161.132812	-24.80	173.58	1.00
164.062500	-24.82	173.52	1.00
166.992188	-24.81	173.18	1.00
169.921875	-24.81	173.14	1.00
172.851562	-24.84	173.19	1.00
175.781250	-24.83	172.98	1.00
178.710938	-24.81	172.86	1.00
181.640625	-24.81	172.69	1.00
184.570312	-24.84	172.85	1.00
187.500000	-24.85	172.52	1.00
190.429688	-24.84	172.38	1.00
193.359375	-24.84	172.25	1.00
196.289062	-24.83	171.96	1.00
199.218750	-24.83	171.91	1.00
202.148438	-24.88	171.89	1.00
205.078125	-24.86	171.81	1.00
208.007812	-24.86	171.65	1.00
210.937500	-24.87	171.43	1.00
213.867188	-24.86	171.36	1.00
216.796875	-24.88	171.23	1.00
219.726562	-24.86	171.08	1.00
222.656250	-24.88	171.10	1.00
225.585938	-24.89	170.85	1.00
228.515625	-24.88	170.75	1.00
231.445312	-24.88	170.56	1.00
234.375000	-24.89	170.53	1.00
237.304688	-24.89	170.25	1.00
240.234375	-24.91	170.18	1.00
243.164062	-24.90	170.13	1.00
246.093750	-24.94	170.04	1.00
249.023438	-24.94	169.85	1.00
251.953125	-24.93	169.81	1.00
254.882812	-24.93	169.49	1.00
257.812500	-24.93	169.38	1.00
260.742188	-24.92	169.28	1.00
263.671875	-24.93	169.37	1.00
266.601562	-24.96	169.16	1.00
269.531250	-24.96	168.99	1.00
272.460938	-24.96	168.86	1.00
275.390625	-24.96	168.72	1.00
278.320312	-24.96	168.70	1.00
281.250000	-24.96	168.56	1.00
287.109375	-24.98	168.45	1.00
292.968750	-24.98	168.02	1.00
298.828125	-24.98	167.86	1.00
304.687500	-25.03	167.68	1.00
310.546875	-25.02	167.40	1.00
316.406250	-25.04	167.27	1.00
322.265625	-25.05	167.13	1.00
328.125000	-25.01	166.72	1.00
333.984375	-25.08	166.53	1.00
339.843750	-25.08	166.30	1.00
345.703125	-25.13	166.20	1.00
351.562500	-25.10	165.83	1.00
357.421875	-25.12	165.63	1.00
363.281250	-25.14	165.34	1.00
369.140625	-25.14	165.05	1.00
375.000000	-25.16	164.81	1.00
380.859375	-25.19	164.74	1.00
386.718750	-25.19	164.55	1.00
392.578125	-25.19	164.21	1.00
398.437500	-25.20	164.03	1.00
404.296875	-25.21	163.75	1.00
410.156250	-25.23	163.66	1.00
416.015625	-25.26	163.42	1.00
421.875000	-25.27	163.22	1.00
427.734375	-25.25	162.92	1.00
433.593750	-25.29	162.68	1.00
439.453125	-25.29	162.53	1.00
445.312500	-25.32	162.35	1.00
451.171875	-25.35	162.17	1.00
457.031250	-25.35	161.94	1.00
462.890625	-25.37	161.61	1.00
468.750000	-25.39	161.48	1.00
474.609375	-25.39	161.31	1.00
480.468750	-25.37	161.09	1.00
486.328125	-25.41	160.80	1.00
492.187500	-25.46	160.57	1.00
498.046875	-25.46	160.46	1.00
503.906250	-25.49	160.03	1.00
509.765625	-25.50	159.97	1.00
515.625000	-25.50	159.88	1.00
521.484375	-25.51	159.65	1.00
527.343750	-25.53	159.56	1.00
533.203125	-25.55	159.31	1.00
539.062500	-25.57	159.11	1.00
544.921875	-25.58	158.92	1.00
550.781250	-25.59	158.54	1.00
556.640625	-25.63	158.45	1.00
562.500000	-25.65	158.30	1.00
574.218750	-25.66	157.89	1.00
585.937500	-25.68	157.56	1.00
597.656250	-25.75	157.12	1.00
609.375000	-25.76	156.88	1.00
621.093750	-25.79	156.40	1.00
632.812500	-25.83	156.26	1.00
644.531250	-25.89	155.86	1.00
656.250000	-25.93	155.36	1.00
667.968750	-25.94	154.94	1.00
679.687500	-25.99	154.71	1.00
691.406250	-25.99	154.47	1.00
703.125000	-26.03	153.97	1.00
714.843750	-26.10	153.98	1.00
726.562500	-26.15	153.41	1.00
738.281250	-26.19	153.14	1.00
750.000000	-26.21	152.77	1.00
761.718750	-26.24	152.63	1.00
773.437500	-26.30	152.02	1.00
785.156250	-26.33	151.77	1.00
796.875000	-26.34	151.42	1.00
808.593750	-26.40	151.26	1.00
820.312500	-26.46	150.92	1.00
832.031250	-26.51	150.28	1.00
843.750000	-26.50	150.48	1.00
855.468750	-26.57	150.01	1.00
867.187500	-26.61	149.91	1.00
878.906250	-26.63	149.44	1.00
890.625000	-26.72	149.36	1.00
902.343750	-26.73	148.76	1.00
914.062500	-26.76	148.75	1.00
925.781250	-26.78	148.29	1.00
937.500000	-26.83	147.86	1.00
949.218750	-26.87	147.70	1.00
960.937500	-26.94	147.50	1.00
972.656250	-26.96	147.20	1.00
984.375000	-27.00	146.89	1.00
996.093750	-27.04	146.85	1.00
1007.812500	-27.04	146.71	1.00
1019.531250	-27.10	146.27	1.00
1031.250000	-27.15	145.97	1.00
1042.968750	-27.17	145.80	1.00
1054.687500	-27.25	145.59	1.00
1066.406250	-27.27	145.30	1.00
1078.125000	-27.33	145.19	1.00
1089.843750	-27.35	145.02	1.00
1101.562500	-27.42	144.63	1.00
1113.281250	-27.46	144.41	1.00
1125.000000	-27.48	144.21	1.00
1148.437500	-27.55	143.85	1.00
1171.875000	-27.66	143.24	1.00
1195.312500	-27.70	142.51	1.00
1218.750000	-27.74	143.02	1.00
1242.187500	-27.85	142.00	1.00
1265.625000	-27.95	141.64	1.00
1289.062500	-28.08	141.61	0.99
1312.500000	-28.07	140.83	1.00
1335.937500	-28.19	140.98	1.00
1359.375000	-28.28	140.36	1.00
1382.812500	-28.35	140.05	1.00
1406.250000	-28.46	139.91	1.00
1429.687500	-28.55	139.36	1.00
1453.125000	-28.57	139.15	1.00
1476.562500	-28.67	138.99	1.00
1500.000000	-28.76	138.42	1.00
1523.437500	-28.94	138.00	1.00
1546.875000	-28.86	137.75	1.00
1570.312500	-28.96	138.26	1.00
1593.750000	-29.02	137.55	1.00
1617.187500	-29.17	137.38	1.00
1640.625000	-29.16	136.90	1.00
1664.062500	-29.30	136.91	1.00
1687.500000	-29.31	136.49	1.00
1710.937500	-29.43	136.11	1.00
1734.375000	-29.47	136.25	1.00
1757.812500	-29.54	136.07	1.00
1781.250000	-29.63	135.54	1.00
1804.687500	-29.71	135.47	1.00
1828.125000	-29.77	135.42	1.00
1851.562500	-29.82	134.93	1.00
1875.000000	-29.92	134.99	1.00
1898.437500	-29.96	134.74	1.00
1921.875000	-30.05	134.30	1.00
1945.312500	-30.14	134.32	1.00
1968.750000	-30.19	134.11	1.00
1992.187500	-30.24	134.30	1.00
2015.625000	-30.30	133.93	1.00
2039.062500	-30.38	133.71	1.00
2062.500000	-30.48	133.57	1.00
2085.937500	-30.51	133.29	1.00
2109.375000	-30.57	133.24	0.99
2132.812500	-30.60	132.97	1.00
2156.250000	-30.72	133.05	1.00
2179.687500	-30.77	132.99	0.99
2203.125000	-30.82	133.21	0.99
2226.562500	-30.88	132.76	1.00
2250.000000	-31.00	132.49	1.00
2296.875000	-31.14	132.29	1.00
2343.750000	-31.21	132.20	1.00
2390.625000	-31.36	131.61	1.00
2437.500000	-31.43	131.36	1.00
2484.375000	-31.57	131.79	1.00
2531.250000	-31.68	131.52	1.00
2578.125000	-31.71	130.77	1.00
2625.000000	-31.91	131.33	1.00
2671.875000	-31.97	130.73	1.00
2718.750000	-32.13	130.70	1.00
2765.625000	-32.19	130.51	1.00
2812.500000	-32.32	130.44	1.00
2859.375000	-32.37	130.55	1.00
2906.250000	-32.53	130.99	1.00
2953.125000	-32.56	130.21	1.00
3000.000000	-32.70	130.18	1.00
3046.875000	-32.83	129.81	1.00
3093.750000	-32.87	130.21	1.00
3140.625000	-32.97	129.89	0.99
3187.500000	-33.09	129.75	1.00
3234.375000	-33.17	129.58	1.00
3281.250000	-33.28	129.46	1.00
3328.125000	-33.32	129.86	1.00
3375.000000	-33.68	129.55	1.00
3421.875000	-33.55	129.58	1.00
3468.750000	-33.63	128.85	1.00
3515.625000	-33.73	129.62	1.00
3562.500000	-33.85	129.42	1.00
3609.375000	-33.81	129.35	1.00
3656.250000	-33.91	129.55	1.00
3703.125000	-33.96	129.73	0.99
3750.000000	-34.08	129.82	1.00
3796.875000	-34.18	129.19	1.00
3843.750000	-34.27	129.39	1.00
3890.625000	-34.38	129.33	1.00
3937.500000	-34.38	129.51	1.00
3984.375000	-34.59	129.49	1.00
4031.250000	-34.60	129.59	1.00
4078.125000	-34.68	130.02	1.00
4125.000000	-34.74	129.33	1.00
4171.875000	-34.72	129.87	1.00
4218.750000	-34.81	129.52	1.00
4265.625000	-34.82	128.61	1.00
4312.500000	-34.92	129.51	1.00
4359.375000	-35.03	129.38	1.00
4406.250000	-35.12	129.45	1.00
4453.125000	-35.15	129.41	1.00
4500.000000	-35.22	129.38	1.00
4593.750000	-35.34	129.68	1.00
4687.500000	-35.52	129.42	1.00
4781.250000	-35.64	130.19	1.00
4875.000000	-35.76	129.42	1.00
4968.750000	-35.86	129.92	1.00
5062.500000	-35.92	129.55	1.00
5156.250000	-36.07	130.18	1.00
5250.000000	-36.13	130.42	1.00
5343.750000	-36.21	130.27	1.00
5437.500000	-36.41	130.24	1.00
5531.250000	-36.54	130.37	0.99
5625.000000	-36.57	130.66	1.00
5718.750000	-36.66	130.83	1.00
5812.500000	-36.82	130.25	1.00
5906.250000	-36.92	131.07	1.00
6000.000000	-37.02	130.76	1.00
6093.750000	-37.03	131.19	1.00
6187.500000	-37.10	131.00	1.00
6281.250000	-37.26	131.88	1.00
6375.000000	-37.42	131.62	1.00
6468.750000	-37.41	131.17	1.00
6562.500000	-37.55	131.32	1.00
6656.250000	-37.59	132.34	1.00
6750.000000	-37.65	131.81	1.00
6843.750000	-37.80	132.09	1.00
6937.500000	-37.89	132.18	1.00
7031.250000	-37.92	132.43	1.00
7125.000000	-38.03	132.95	1.00
7218.750000	-38.05	132.67	1.00
7312.500000	-38.19	132.11	1.00
7406.250000	-38.26	132.65	1.00
7500.000000	-38.38	132.98	1.00
7593.750000	-38.33	133.34	1.00
7687.500000	-38.38	133.28	1.00
7781.250000	-38.44	133.59	1.00
7875.000000	-38.53	133.56	1.00
7968.750000	-38.70	133.52	1.00
8062.500000	-38.69	133.52	1.00
8156.250000	-38.80	133.97	1.00
8250.000000	-38.87	134.07	1.00
8343.750000	-38.84	134.18	1.00
8437.500000	-38.88	134.09	1.00
8531.250000	-39.02	134.70	1.00
8625.000000	-39.08	134.59	1.00
8718.750000	-39.17	134.71	1.00
8812.500000	-39.25	134.75	1.00
8906.250000	-39.23	135.28	1.00
9000.000000	-39.20	135.12	1.00
9187.500000	-39.41	135.44	1.00
9375.000000	-39.56	136.55	0.99
9562.500000	-39.54	135.91	1.00
9750.000000	-39.72	136.47	0.99
9937.500000	-39.76	137.40	1.00
10125.000000	-39.90	136.67	1.00
10312.500000	-40.13	137.80	0.99
10500.000000	-40.16	138.02	1.00
10687.500000	-40.23	137.71	1.00
10875.000000	-40.26	138.29	1.00
11062.500000	-40.37	138.99	1.00
11250.000000	-40.44	139.16	1.00
11437.500000	-40.60	139.07	0.99
11625.000000	-40.63	139.23	1.00
11812.500000	-40.67	139.76	1.00
12000.000000	-40.76	140.08	1.00
12187.500000	-40.80	141.05	1.00
12375.000000	-40.94	139.92	1.00
12562.500000	-41.01	140.14	0.99
12750.000000	-41.10	141.02	0.99
12937.500000	-40.99	141.10	1.00
13125.000000	-41.28	141.30	1.00
13312.500000	-41.29	141.68	1.00
13500.000000	-41.32	142.65	1.00
13687.500000	-41.26	142.88	1.00
13875.000000	-41.39	143.12	1.00
14062.500000	-41.41	143.20	1.00
14250.000000	-41.50	142.81	1.00
14437.500000	-41.66	143.78	1.00
14625.000000	-41.67	144.00	1.00
14812.500000	-41.71	144.09	1.00
15000.000000	-41.81	144.96	1.00
15187.500000	-41.88	144.60	0.99
15375.000000	-41.76	144.88	1.00
15562.500000	-41.91	145.07	1.00
15750.000000	-42.01	145.43	1.00
15937.500000	-41.95	145.30	1.00
16125.000000	-41.99	145.95	1.00
16312.500000	-42.02	146.13	1.00
16500.000000	-42.06	146.41	1.00
16687.500000	-42.15	147.10	1.00
16875.000000	-42.17	147.36	1.00
17062.500000	-42.31	146.84	1.00
17250.000000	-42.30	147.54	1.00
17437.500000	-42.34	147.85	1.00
17625.000000	-42.28	147.84	1.00
17812.500000	-42.47	148.52	1.00
18000.000000	-42.45	148.70	1.00
18187.500000	-42.40	148.55	1.00
18375.000000	-42.55	149.15	1.00
18562.500000	-42.59	149.73	0.99
18750.000000	-42.52	149.46	1.00
18937.500000	-42.60	149.77	0.99
19125.000000	-42.71	150.18	1.00
19312.500000	-42.72	150.14	1.00
19500.000000	-42.79	150.17	1.00
19687.500000	-42.74	150.71	0.99
19875.000000	-42.76	151.01	1.00
20062.500000	-42.73	151.22	1.00
20250.000000	-42.84	151.20	1.00
20437.500000	-42.87	151.29	1.00
20625.000000	-42.87	151.83	1.00
20812.500000	-42.81	151.73	0.99
21000.000000	-42.81	151.99	1.00
21187.500000	-42.98	152.19	0.99
21375.000000	-42.97	152.47	0.99
21562.500000	-43.06	152.42	0.99
21750.000000	-43.03	152.64	0.99
21937.500000	-43.07	152.95	0.99
22125.000000	-43.14	153.60	0.99
22312.500000	-43.13	153.33	0.99
22500.000000	-43.05	153.43	0.99
22687.500000	-43.13	153.91	0.99
22875.000000	-43.21	154.32	0.99
23062.500000	-43.22	154.28	0.99
23250.000000	-43.22	154.64	0.99
23437.500000	-43.29	155.46	0.99
23625.000000	-43.68	158.66	0.99
23812.500000	-44.16	165.14	0.98
